Source: Spectrum Viewer
Chart: Pulse Spectrum
Series: 
Wavelength (nm)	S (a.u.)
600.52	435
600.548	444
600.576	441
600.604	434
600.632	441
600.66	446
600.688	436
600.716	460
600.744	446
600.772	434
600.8	419
600.828	445
600.856	448
600.884	426
600.912	421
600.94	464
600.968	426
600.996	429
601.024	431
601.052	441
601.08	426
601.108	449
601.136	440
601.164	452
601.192	448
601.22	431
601.248	450
601.276	443
601.304	419
601.332	444
601.36	447
601.388	446
601.416	422
601.444	434
601.472	426
601.5	433
601.528	446
601.556	427
601.584	439
601.612	423
601.64	421
601.668	446
601.696	441
601.724	449
601.752	451
601.78	461
601.808	419
601.836	438
601.864	440
601.892	437
601.92	454
601.948	445
601.976	431
602.004	423
602.032	433
602.06	430
602.088	451
602.116	427
602.144	441
602.171	465
602.199	436
602.227	442
602.255	415
602.283	431
602.311	457
602.339	437
602.367	441
602.395	448
602.423	431
602.451	443
602.479	441
602.507	442
602.535	423
602.563	416
602.591	462
602.619	436
602.647	465
602.675	438
602.703	443
602.731	445
602.759	426
602.786	445
602.814	429
602.842	451
602.87	429
602.898	429
602.926	439
602.954	413
602.982	445
603.01	452
603.038	436
603.066	438
603.094	428
603.122	442
603.15	449
603.178	452
603.206	433
603.234	457
603.261	441
603.289	460
603.317	449
603.345	455
603.373	437
603.401	430
603.429	438
603.457	438
603.485	447
603.513	427
603.541	433
603.569	433
603.597	447
603.624	440
603.652	445
603.68	462
603.708	451
603.736	454
603.764	452
603.792	441
603.82	449
603.848	438
603.876	421
603.904	439
603.932	413
603.959	443
603.987	448
604.015	434
604.043	433
604.071	441
604.099	460
604.127	443
604.155	456
604.183	439
604.211	445
604.239	436
604.266	453
604.294	449
604.322	433
604.35	441
604.378	440
604.406	439
604.434	453
604.462	434
604.49	440
604.518	451
604.545	445
604.573	443
604.601	439
604.629	441
604.657	423
604.685	449
604.713	446
604.741	443
604.769	429
604.796	431
604.824	450
604.852	472
604.88	433
604.908	433
604.936	447
604.964	427
604.992	439
605.02	429
605.047	424
605.075	452
605.103	441
605.131	441
605.159	442
605.187	433
605.215	442
605.243	424
605.27	454
605.298	467
605.326	409
605.354	440
605.382	445
605.41	465
605.438	409
605.466	433
605.493	435
605.521	452
605.549	418
605.577	424
605.605	445
605.633	455
605.661	435
605.688	441
605.716	447
605.744	431
605.772	422
605.8	442
605.828	422
605.856	449
605.883	443
605.911	437
605.939	447
605.967	422
605.995	442
606.023	440
606.051	424
606.078	454
606.106	439
606.134	433
606.162	436
606.19	421
606.218	451
606.246	450
606.273	440
606.301	433
606.329	449
606.357	453
606.385	437
606.413	435
606.44	447
606.468	440
606.496	442
606.524	449
606.552	429
606.58	443
606.607	421
606.635	432
606.663	435
606.691	423
606.719	419
606.747	438
606.774	445
606.802	454
606.83	438
606.858	424
606.886	453
606.914	432
606.941	453
606.969	434
606.997	433
607.025	438
607.053	427
607.081	442
607.108	429
607.136	417
607.164	420
607.192	446
607.22	451
607.247	448
607.275	447
607.303	434
607.331	440
607.359	452
607.387	433
607.414	431
607.442	421
607.47	431
607.498	429
607.526	443
607.553	441
607.581	422
607.609	464
607.637	460
607.665	442
607.692	427
607.72	436
607.748	435
607.776	419
607.804	461
607.831	437
607.859	427
607.887	439
607.915	450
607.943	435
607.97	445
607.998	424
608.026	453
608.054	436
608.082	445
608.109	422
608.137	432
608.165	459
608.193	432
608.221	424
608.248	434
608.276	438
608.304	446
608.332	419
608.359	460
608.387	432
608.415	449
608.443	437
608.471	453
608.498	461
608.526	445
608.554	435
608.582	458
608.609	428
608.637	441
608.665	422
608.693	425
608.721	458
608.748	427
608.776	436
608.804	436
608.832	430
608.859	445
608.887	431
608.915	438
608.943	451
608.971	421
608.998	445
609.026	441
609.054	430
609.082	441
609.109	411
609.137	422
609.165	423
609.193	452
609.22	427
609.248	449
609.276	444
609.304	445
609.331	457
609.359	445
609.387	438
609.415	435
609.442	411
609.47	457
609.498	450
609.526	438
609.553	456
609.581	420
609.609	429
609.637	441
609.664	449
609.692	430
609.72	417
609.748	456
609.775	415
609.803	449
609.831	441
609.859	449
609.886	453
609.914	433
609.942	461
609.97	436
609.997	430
610.025	416
610.053	464
610.081	462
610.108	426
610.136	451
610.164	430
610.191	460
610.219	430
610.247	467
610.275	417
610.302	452
610.33	447
610.358	456
610.386	441
610.413	455
610.441	425
610.469	429
610.496	439
610.524	429
610.552	449
610.58	432
610.607	439
610.635	436
610.663	420
610.691	435
610.718	449
610.746	454
610.774	428
610.801	451
610.829	461
610.857	464
610.885	445
610.912	458
610.94	455
610.968	428
610.995	441
611.023	441
611.051	421
611.078	442
611.106	425
611.134	477
611.162	451
611.189	436
611.217	431
611.245	450
611.272	429
611.3	427
611.328	441
611.355	452
611.383	425
611.411	445
611.439	439
611.466	427
611.494	450
611.522	445
611.549	432
611.577	433
611.605	421
611.632	429
611.66	429
611.688	462
611.715	449
611.743	458
611.771	433
611.799	437
611.826	443
611.854	445
611.882	449
611.909	422
611.937	452
611.965	433
611.992	446
612.02	443
612.048	426
612.075	428
612.103	452
612.131	459
612.158	435
612.186	455
612.214	438
612.241	450
612.269	422
612.297	430
612.324	421
612.352	449
612.38	435
612.407	457
612.435	431
612.463	435
612.49	427
612.518	449
612.546	449
612.573	444
612.601	458
612.629	438
612.656	429
612.684	458
612.712	438
612.739	461
612.767	439
612.795	454
612.822	438
612.85	445
612.878	441
612.905	438
612.933	434
612.961	441
612.988	441
613.016	430
613.044	437
613.071	445
613.099	439
613.126	453
613.154	449
613.182	451
613.209	449
613.237	435
613.265	420
613.292	442
613.32	433
613.348	427
613.375	438
613.403	439
613.431	421
613.458	446
613.486	445
613.513	441
613.541	448
613.569	438
613.596	422
613.624	450
613.652	435
613.679	442
613.707	415
613.734	435
613.762	457
613.79	453
613.817	426
613.845	444
613.873	446
613.9	439
613.928	438
613.955	425
613.983	433
614.011	443
614.038	422
614.066	445
614.094	432
614.121	440
614.149	449
614.176	433
614.204	436
614.232	452
614.259	443
614.287	445
614.314	435
614.342	421
614.37	418
614.397	427
614.425	435
614.453	436
614.48	432
614.508	446
614.535	429
614.563	430
614.591	427
614.618	437
614.646	449
614.673	457
614.701	439
614.729	442
614.756	447
614.784	448
614.811	433
614.839	445
614.867	420
614.894	444
614.922	436
614.949	440
614.977	469
615.005	461
615.032	441
615.06	450
615.087	435
615.115	429
615.142	436
615.17	429
615.198	441
615.225	453
615.253	435
615.28	440
615.308	435
615.336	441
615.363	437
615.391	433
615.418	435
615.446	440
615.473	436
615.501	427
615.529	440
615.556	416
615.584	437
615.611	440
615.639	442
615.666	453
615.694	415
615.722	453
615.749	437
615.777	454
615.804	429
615.832	425
615.859	460
615.887	442
615.915	423
615.942	439
615.97	427
615.997	455
616.025	451
616.052	435
616.08	432
616.108	441
616.135	433
616.163	449
616.19	419
616.218	427
616.245	450
616.273	442
616.3	441
616.328	426
616.356	431
616.383	453
616.411	469
616.438	421
616.466	427
616.493	426
616.521	451
616.548	435
616.576	411
616.603	435
616.631	440
616.659	434
616.686	437
616.714	433
616.741	433
616.769	450
616.796	434
616.824	466
616.851	447
616.879	433
616.906	451
616.934	431
616.961	465
616.989	434
617.017	434
617.044	461
617.072	442
617.099	446
617.127	461
617.154	437
617.182	419
617.209	446
617.237	440
617.264	425
617.292	427
617.319	420
617.347	426
617.374	433
617.402	427
617.429	420
617.457	425
617.484	434
617.512	437
617.54	447
617.567	438
617.595	432
617.622	439
617.65	430
617.677	434
617.705	448
617.732	437
617.76	442
617.787	436
617.815	431
617.842	448
617.87	431
617.897	447
617.925	432
617.952	436
617.98	420
618.007	432
618.035	429
618.062	462
618.09	425
618.117	421
618.145	433
618.172	441
618.2	428
618.227	432
618.255	456
618.282	441
618.31	437
618.337	450
618.365	427
618.392	418
618.42	462
618.447	445
618.475	436
618.502	445
618.53	429
618.557	444
618.585	434
618.612	442
618.64	436
618.667	426
618.695	434
618.722	447
618.749	433
618.777	427
618.804	437
618.832	453
618.859	429
618.887	424
618.914	423
618.942	419
618.969	427
618.997	442
619.024	437
619.052	433
619.079	425
619.107	430
619.134	440
619.162	442
619.189	427
619.217	442
619.244	423
619.271	433
619.299	443
619.326	418
619.354	444
619.381	426
619.409	453
619.436	449
619.464	451
619.491	433
619.519	413
619.546	429
619.574	432
619.601	432
619.628	431
619.656	433
619.683	433
619.711	432
619.738	435
619.766	427
619.793	454
619.821	427
619.848	449
619.876	419
619.903	440
619.93	427
619.958	435
619.985	422
620.013	438
620.04	432
620.068	442
620.095	430
620.123	430
620.15	448
620.177	437
620.205	451
620.232	449
620.26	425
620.287	433
620.315	420
620.342	438
620.369	440
620.397	426
620.424	427
620.452	437
620.479	443
620.507	451
620.534	451
620.562	432
620.589	454
620.616	430
620.644	437
620.671	434
620.699	441
620.726	436
620.753	422
620.781	406
620.808	448
620.836	433
620.863	419
620.891	425
620.918	439
620.945	443
620.973	434
621	438
621.028	434
621.055	452
621.083	427
621.11	433
621.137	429
621.165	456
621.192	437
621.22	417
621.247	433
621.274	435
621.302	440
621.329	433
621.357	438
621.384	422
621.411	446
621.439	449
621.466	445
621.494	452
621.521	440
621.548	451
621.576	431
621.603	423
621.631	449
621.658	432
621.685	439
621.713	447
621.74	448
621.768	437
621.795	436
621.822	445
621.85	437
621.877	425
621.905	419
621.932	433
621.959	437
621.987	455
622.014	445
622.041	417
622.069	433
622.096	427
622.124	449
622.151	443
622.178	448
622.206	437
622.233	436
622.261	425
622.288	429
622.315	449
622.343	437
622.37	429
622.397	422
622.425	446
622.452	448
622.48	435
622.507	434
622.534	446
622.562	433
622.589	441
622.616	430
622.644	430
622.671	449
622.698	415
622.726	431
622.753	435
622.781	436
622.808	427
622.835	418
622.863	433
622.89	442
622.917	434
622.945	417
622.972	435
622.999	449
623.027	429
623.054	449
623.082	440
623.109	430
623.136	444
623.164	438
623.191	437
623.218	448
623.246	447
623.273	425
623.3	428
623.328	431
623.355	441
623.382	428
623.41	427
623.437	419
623.464	441
623.492	431
623.519	425
623.546	437
623.574	430
623.601	446
623.628	433
623.656	429
623.683	422
623.71	433
623.738	441
623.765	428
623.792	438
623.82	437
623.847	422
623.874	433
623.902	457
623.929	446
623.956	449
623.984	446
624.011	431
624.038	430
624.066	446
624.093	447
624.12	430
624.148	415
624.175	427
624.202	430
624.23	428
624.257	454
624.284	439
624.312	440
624.339	462
624.366	448
624.394	433
624.421	429
624.448	433
624.476	439
624.503	446
624.53	437
624.558	445
624.585	441
624.612	437
624.639	437
624.667	435
624.694	432
624.721	446
624.749	438
624.776	445
624.803	420
624.831	428
624.858	421
624.885	458
624.912	430
624.94	431
624.967	427
624.994	459
625.022	442
625.049	445
625.076	473
625.104	441
625.131	425
625.158	456
625.185	432
625.213	440
625.24	432
625.267	443
625.295	429
625.322	436
625.349	437
625.376	437
625.404	434
625.431	426
625.458	441
625.486	434
625.513	430
625.54	437
625.567	425
625.595	434
625.622	436
625.649	437
625.677	432
625.704	441
625.731	439
625.758	464
625.786	449
625.813	435
625.84	431
625.868	439
625.895	428
625.922	437
625.949	428
625.977	431
626.004	428
626.031	443
626.058	447
626.086	417
626.113	432
626.14	449
626.167	429
626.195	418
626.222	428
626.249	449
626.277	451
626.304	443
626.331	415
626.358	438
626.386	433
626.413	411
626.44	438
626.467	445
626.495	424
626.522	448
626.549	429
626.576	427
626.604	448
626.631	447
626.658	435
626.685	446
626.713	423
626.74	429
626.767	431
626.794	440
626.822	440
626.849	451
626.876	419
626.903	457
626.931	422
626.958	442
626.985	433
627.012	446
627.039	438
627.067	450
627.094	448
627.121	441
627.148	431
627.176	435
627.203	453
627.23	436
627.257	451
627.285	447
627.312	439
627.339	454
627.366	459
627.394	433
627.421	444
627.448	448
627.475	443
627.502	431
627.53	430
627.557	413
627.584	454
627.611	450
627.639	427
627.666	439
627.693	415
627.72	425
627.747	443
627.775	415
627.802	435
627.829	444
627.856	437
627.883	428
627.911	444
627.938	429
627.965	441
627.992	434
628.02	435
628.047	439
628.074	429
628.101	435
628.128	448
628.156	422
628.183	460
628.21	438
628.237	432
628.264	432
628.292	439
628.319	437
628.346	429
628.373	436
628.4	453
628.428	429
628.455	450
628.482	431
628.509	437
628.536	442
628.564	419
628.591	448
628.618	438
628.645	435
628.672	430
628.699	431
628.727	431
628.754	449
628.781	424
628.808	431
628.835	430
628.863	414
628.89	445
628.917	458
628.944	429
628.971	458
628.999	423
629.026	435
629.053	423
629.08	448
629.107	433
629.134	441
629.162	438
629.189	436
629.216	448
629.243	430
629.27	435
629.297	461
629.325	438
629.352	442
629.379	435
629.406	430
629.433	435
629.46	449
629.488	451
629.515	426
629.542	438
629.569	427
629.596	430
629.623	425
629.651	430
629.678	435
629.705	429
629.732	441
629.759	446
629.786	443
629.814	430
629.841	427
629.868	434
629.895	438
629.922	430
629.949	433
629.976	437
630.004	453
630.031	433
630.058	427
630.085	435
630.112	435
630.139	454
630.166	424
630.194	426
630.221	433
630.248	442
630.275	423
630.302	436
630.329	426
630.356	434
630.384	444
630.411	435
630.438	443
630.465	428
630.492	431
630.519	453
630.546	433
630.574	424
630.601	456
630.628	435
630.655	449
630.682	427
630.709	441
630.736	451
630.763	445
630.791	441
630.818	440
630.845	420
630.872	451
630.899	428
630.926	466
630.953	436
630.98	435
631.008	434
631.035	419
631.062	442
631.089	437
631.116	434
631.143	458
631.17	438
631.197	469
631.225	441
631.252	457
631.279	467
631.306	430
631.333	440
631.36	437
631.387	447
631.414	433
631.441	424
631.469	417
631.496	435
631.523	439
631.55	429
631.577	431
631.604	438
631.631	429
631.658	455
631.685	437
631.712	421
631.74	454
631.767	404
631.794	430
631.821	465
631.848	427
631.875	449
631.902	443
631.929	441
631.956	439
631.983	450
632.011	427
632.038	453
632.065	443
632.092	445
632.119	430
632.146	430
632.173	447
632.2	453
632.227	450
632.254	443
632.281	443
632.308	472
632.336	467
632.363	454
632.39	461
632.417	455
632.444	474
632.471	475
632.498	511
632.525	594
632.552	1343
632.579	1821
632.606	641
632.633	541
632.66	539
632.688	627
632.715	1804
632.742	2163
632.769	726
632.796	501
632.823	463
632.85	451
632.877	451
632.904	443
632.931	458
632.958	460
632.985	442
633.012	434
633.039	441
633.066	439
633.093	459
633.121	449
633.148	439
633.175	443
633.202	438
633.229	458
633.256	445
633.283	459
633.31	452
633.337	426
633.364	435
633.391	449
633.418	446
633.445	444
633.472	432
633.499	443
633.526	427
633.553	415
633.58	434
633.607	430
633.634	470
633.662	450
633.689	446
633.716	441
633.743	427
633.77	433
633.797	437
633.824	427
633.851	446
633.878	456
633.905	434
633.932	427
633.959	432
633.986	425
634.013	432
634.04	429
634.067	417
634.094	436
634.121	445
634.148	423
634.175	435
634.202	429
634.229	441
634.256	436
634.283	429
634.31	409
634.337	437
634.364	442
634.391	443
634.418	429
634.445	427
634.472	431
634.499	431
634.526	427
634.553	459
634.58	445
634.607	438
634.634	426
634.662	431
634.689	448
634.716	435
634.743	421
634.77	445
634.797	437
634.824	435
634.851	430
634.878	446
634.905	443
634.932	452
634.959	417
634.986	422
635.013	449
635.04	414
635.067	419
635.094	431
635.121	429
635.148	443
635.175	449
635.202	449
635.229	437
635.256	448
635.283	438
635.31	428
635.337	462
635.364	438
635.391	439
635.418	446
635.445	426
635.471	438
635.498	422
635.525	429
635.552	449
635.579	427
635.606	427
635.633	431
635.66	462
635.687	445
635.714	438
635.741	439
635.768	423
635.795	432
635.822	427
635.849	436
635.876	427
635.903	446
635.93	424
635.957	441
635.984	436
636.011	454
636.038	424
636.065	443
636.092	427
636.119	421
636.146	445
636.173	446
636.2	436
636.227	439
636.254	453
636.281	438
636.308	436
636.335	423
636.362	438
636.389	437
636.416	427
636.443	434
636.469	450
636.496	453
636.523	431
636.55	433
636.577	423
636.604	450
636.631	436
636.658	440
636.685	422
636.712	435
636.739	426
636.766	432
636.793	440
636.82	425
636.847	435
636.874	435
636.901	433
636.928	456
636.955	441
636.982	436
637.008	436
637.035	441
637.062	407
637.089	445
637.116	438
637.143	436
637.17	410
637.197	451
637.224	432
637.251	426
637.278	450
637.305	433
637.332	409
637.359	430
637.386	435
637.412	434
637.439	424
637.466	449
637.493	426
637.52	431
637.547	444
637.574	453
637.601	427
637.628	465
637.655	451
637.682	446
637.709	420
637.736	437
637.763	415
637.789	447
637.816	427
637.843	457
637.87	445
637.897	427
637.924	427
637.951	441
637.978	438
638.005	441
638.032	435
638.059	444
638.085	470
638.112	424
638.139	407
638.166	433
638.193	431
638.22	429
638.247	453
638.274	452
638.301	457
638.328	437
638.355	472
638.381	459
638.408	451
638.435	452
638.462	436
638.489	437
638.516	464
638.543	478
638.57	448
638.597	431
638.624	449
638.65	421
638.677	465
638.704	434
638.731	431
638.758	443
638.785	430
638.812	457
638.839	439
638.866	450
638.892	430
638.919	436
638.946	424
638.973	431
639	422
639.027	436
639.054	449
639.081	420
639.107	449
639.134	422
639.161	433
639.188	433
639.215	433
639.242	441
639.269	430
639.296	429
639.322	441
639.349	435
639.376	435
639.403	424
639.43	448
639.457	431
639.484	444
639.511	441
639.537	433
639.564	457
639.591	421
639.618	434
639.645	419
639.672	455
639.699	435
639.725	445
639.752	431
639.779	452
639.806	421
639.833	442
639.86	463
639.887	426
639.913	427
639.94	429
639.967	435
639.994	443
640.021	424
640.048	441
640.075	418
640.101	434
640.128	446
640.155	429
640.182	446
640.209	441
640.236	421
640.262	459
640.289	418
640.316	445
640.343	436
640.37	426
640.397	444
640.424	437
640.45	435
640.477	451
640.504	452
640.531	425
640.558	448
640.585	445
640.611	435
640.638	460
640.665	457
640.692	450
640.719	433
640.746	421
640.772	431
640.799	435
640.826	434
640.853	455
640.88	432
640.907	459
640.933	441
640.96	466
640.987	453
641.014	443
641.041	435
641.067	429
641.094	443
641.121	425
641.148	430
641.175	422
641.202	413
641.228	439
641.255	428
641.282	439
641.309	453
641.336	436
641.362	454
641.389	447
641.416	441
641.443	461
641.47	443
641.496	445
641.523	433
641.55	443
641.577	425
641.604	418
641.631	430
641.657	426
641.684	436
641.711	433
641.738	420
641.765	437
641.791	451
641.818	433
641.845	425
641.872	433
641.898	435
641.925	414
641.952	430
641.979	440
642.006	469
642.032	419
642.059	427
642.086	442
642.113	432
642.14	439
642.166	425
642.193	452
642.22	426
642.247	445
642.274	422
642.3	458
642.327	454
642.354	443
642.381	447
642.407	433
642.434	453
642.461	429
642.488	437
642.515	431
642.541	443
642.568	428
642.595	459
642.622	441
642.648	441
642.675	457
642.702	426
642.729	442
642.756	438
642.782	449
642.809	455
642.836	443
642.863	423
642.889	445
642.916	447
642.943	437
642.97	430
642.996	442
643.023	442
643.05	439
643.077	425
643.103	431
643.13	433
643.157	465
643.184	434
643.21	435
643.237	448
643.264	426
643.291	429
643.317	433
643.344	421
643.371	452
643.398	467
643.425	432
643.451	454
643.478	439
643.505	437
643.531	414
643.558	453
643.585	426
643.612	430
643.638	419
643.665	426
643.692	450
643.719	449
643.745	446
643.772	433
643.799	435
643.826	462
643.852	441
643.879	427
643.906	411
643.933	444
643.959	427
643.986	441
644.013	432
644.04	433
644.066	446
644.093	419
644.12	449
644.146	445
644.173	439
644.2	473
644.227	609
644.253	727
644.28	499
644.307	451
644.334	468
644.36	455
644.387	518
644.414	769
644.44	517
644.467	461
644.494	451
644.521	437
644.547	450
644.574	441
644.601	447
644.627	440
644.654	434
644.681	451
644.708	461
644.734	456
644.761	439
644.788	429
644.814	455
644.841	448
644.868	419
644.894	432
644.921	431
644.948	441
644.975	426
645.001	421
645.028	444
645.055	460
645.081	427
645.108	435
645.135	447
645.161	441
645.188	436
645.215	436
645.242	433
645.268	435
645.295	443
645.322	413
645.348	423
645.375	449
645.402	446
645.428	446
645.455	430
645.482	452
645.508	441
645.535	425
645.562	465
645.589	445
645.615	430
645.642	412
645.669	438
645.695	442
645.722	454
645.749	428
645.775	453
645.802	435
645.829	430
645.855	428
645.882	431
645.909	426
645.935	437
645.962	427
645.989	451
646.015	414
646.042	441
646.069	443
646.095	427
646.122	442
646.149	436
646.175	425
646.202	453
646.229	423
646.255	457
646.282	446
646.309	431
646.335	451
646.362	438
646.389	427
646.415	441
646.442	431
646.469	427
646.495	422
646.522	437
646.549	416
646.575	434
646.602	420
646.629	430
646.655	444
646.682	420
646.709	446
646.735	446
646.762	443
646.789	445
646.815	443
646.842	429
646.868	435
646.895	453
646.922	432
646.948	439
646.975	422
647.002	434
647.028	443
647.055	422
647.082	434
647.108	462
647.135	445
647.161	441
647.188	445
647.215	443
647.241	435
647.268	459
647.295	448
647.321	432
647.348	439
647.375	433
647.401	435
647.428	461
647.454	449
647.481	425
647.508	444
647.534	444
647.561	409
647.588	440
647.614	431
647.641	453
647.667	439
647.694	435
647.721	424
647.747	443
647.774	434
647.801	434
647.827	433
647.854	447
647.88	411
647.907	441
647.934	435
647.96	445
647.987	424
648.013	432
648.04	436
648.067	432
648.093	420
648.12	444
648.146	457
648.173	440
648.2	419
648.226	429
648.253	451
648.28	441
648.306	426
648.333	446
648.359	435
648.386	422
648.413	423
648.439	443
648.466	445
648.492	438
648.519	443
648.545	433
648.572	423
648.599	458
648.625	434
648.652	428
648.678	443
648.705	454
648.732	438
648.758	441
648.785	429
648.811	448
648.838	423
648.865	433
648.891	423
648.918	447
648.944	421
648.971	427
648.997	427
649.024	436
649.051	438
649.077	412
649.104	449
649.13	421
649.157	428
649.184	430
649.21	429
649.237	451
649.263	422
649.29	433
649.316	447
649.343	430
649.37	461
649.396	414
649.423	429
649.449	435
649.476	419
649.502	429
649.529	418
649.556	462
649.582	428
649.609	453
649.635	444
649.662	441
649.688	435
649.715	422
649.741	435
649.768	457
649.795	437
649.821	439
649.848	454
649.874	445
649.901	432
649.927	439
649.954	437
649.98	423
650.007	443
650.034	448
650.06	443
650.087	451
650.113	424
650.14	427
650.166	426
650.193	462
650.219	477
650.246	454
650.272	436
650.299	430
650.326	454
650.352	457
650.379	456
650.405	469
650.432	436
650.458	450
650.485	446
650.511	454
650.538	431
650.564	439
650.591	432
650.617	427
650.644	433
650.67	430
650.697	440
650.724	452
650.75	422
650.777	431
650.803	435
650.83	451
650.856	446
650.883	416
650.909	451
650.936	441
650.962	437
650.989	435
651.015	430
651.042	421
651.068	430
651.095	438
651.121	445
651.148	440
651.174	428
651.201	435
651.227	433
651.254	425
651.28	421
651.307	453
651.333	447
651.36	434
651.387	446
651.413	468
651.44	435
651.466	434
651.493	426
651.519	425
651.546	421
651.572	443
651.599	433
651.625	441
651.652	435
651.678	449
651.705	434
651.731	466
651.758	433
651.784	454
651.811	447
651.837	412
651.864	437
651.89	434
651.917	419
651.943	422
651.969	426
651.996	442
652.022	432
652.049	432
652.075	441
652.102	453
652.128	419
652.155	456
652.181	439
652.208	426
652.234	445
652.261	434
652.287	438
652.314	449
652.34	434
652.367	435
652.393	441
652.42	409
652.446	431
652.473	439
652.499	431
652.526	441
652.552	441
652.579	451
652.605	430
652.632	446
652.658	432
652.684	444
652.711	444
652.737	421
652.764	427
652.79	459
652.817	416
652.843	457
652.87	451
652.896	442
652.923	463
652.949	456
652.976	414
653.002	420
653.028	445
653.055	440
653.081	435
653.108	462
653.134	430
653.161	444
653.187	431
653.214	444
653.24	444
653.267	430
653.293	434
653.319	450
653.346	432
653.372	438
653.399	427
653.425	437
653.452	455
653.478	439
653.505	446
653.531	427
653.557	437
653.584	427
653.61	427
653.637	440
653.663	435
653.69	443
653.716	438
653.743	434
653.769	418
653.795	444
653.822	445
653.848	465
653.875	429
653.901	447
653.928	434
653.954	443
653.98	455
654.007	459
654.033	425
654.06	435
654.086	440
654.113	450
654.139	443
654.165	426
654.192	441
654.218	441
654.245	429
654.271	444
654.298	444
654.324	429
654.35	449
654.377	431
654.403	435
654.43	438
654.456	435
654.482	449
654.509	435
654.535	434
654.562	437
654.588	436
654.615	415
654.641	455
654.667	409
654.694	438
654.72	415
654.747	446
654.773	430
654.799	438
654.826	441
654.852	431
654.879	441
654.905	473
654.931	433
654.958	470
654.984	434
655.011	430
655.037	414
655.063	454
655.09	436
655.116	415
655.143	426
655.169	455
655.195	437
655.222	430
655.248	421
655.275	448
655.301	445
655.327	440
655.354	453
655.38	433
655.406	420
655.433	437
655.459	441
655.486	431
655.512	427
655.538	435
655.565	447
655.591	449
655.618	414
655.644	443
655.67	422
655.697	434
655.723	454
655.749	433
655.776	433
655.802	436
655.829	430
655.855	418
655.881	430
655.908	419
655.934	445
655.96	430
655.987	454
656.013	419
656.04	418
656.066	436
656.092	429
656.119	421
656.145	438
656.171	444
656.198	425
656.224	453
656.25	455
656.277	483
656.303	474
656.33	435
656.356	434
656.382	454
656.409	443
656.435	460
656.461	479
656.488	461
656.514	446
656.54	423
656.567	443
656.593	428
656.619	433
656.646	459
656.672	442
656.698	458
656.725	440
656.751	438
656.777	425
656.804	435
656.83	429
656.857	443
656.883	419
656.909	465
656.936	447
656.962	442
656.988	451
657.015	459
657.041	420
657.067	434
657.094	439
657.12	430
657.146	422
657.173	433
657.199	449
657.225	449
657.252	429
657.278	451
657.304	442
657.331	438
657.357	441
657.383	431
657.41	417
657.436	442
657.462	449
657.488	438
657.515	441
657.541	431
657.567	441
657.594	452
657.62	424
657.646	441
657.673	451
657.699	440
657.725	448
657.752	417
657.778	420
657.804	447
657.831	438
657.857	429
657.883	461
657.91	447
657.936	428
657.962	433
657.988	434
658.015	431
658.041	416
658.067	442
658.094	448
658.12	430
658.146	423
658.173	453
658.199	445
658.225	435
658.251	435
658.278	430
658.304	422
658.33	433
658.357	434
658.383	422
658.409	425
658.436	429
658.462	446
658.488	439
658.514	449
658.541	444
658.567	437
658.593	459
658.62	424
658.646	437
658.672	443
658.698	438
658.725	428
658.751	426
658.777	418
658.804	429
658.83	446
658.856	415
658.882	449
658.909	467
658.935	440
658.961	438
658.988	436
659.014	450
659.04	454
659.066	420
659.093	422
659.119	422
659.145	437
659.171	431
659.198	438
659.224	437
659.25	436
659.277	436
659.303	443
659.329	437
659.355	431
659.382	444
659.408	414
659.434	454
659.46	439
659.487	436
659.513	421
659.539	440
659.565	444
659.592	439
659.618	443
659.644	445
659.67	442
659.697	421
659.723	426
659.749	440
659.775	441
659.802	440
659.828	427
659.854	436
659.88	437
659.907	432
659.933	425
659.959	429
659.985	437
660.012	435
660.038	433
660.064	437
660.09	438
660.117	443
660.143	441
660.169	438
660.195	425
660.222	437
660.248	421
660.274	440
660.3	431
660.327	436
660.353	454
660.379	435
660.405	439
660.432	422
660.458	437
660.484	431
660.51	439
660.536	459
660.563	442
660.589	448
660.615	431
660.641	423
660.668	411
660.694	422
660.72	430
660.746	440
660.772	444
660.799	443
660.825	433
660.851	439
660.877	443
660.904	444
660.93	430
660.956	441
660.982	458
661.008	436
661.035	444
661.061	459
661.087	436
661.113	445
661.14	425
661.166	433
661.192	433
661.218	425
661.244	446
661.271	411
661.297	445
661.323	451
661.349	437
661.375	435
661.402	428
661.428	430
661.454	440
661.48	428
661.506	434
661.533	449
661.559	441
661.585	450
661.611	443
661.637	441
661.664	435
661.69	443
661.716	444
661.742	453
661.768	439
661.795	433
661.821	443
661.847	428
661.873	434
661.899	437
661.925	434
661.952	446
661.978	413
662.004	445
662.03	435
662.056	431
662.083	427
662.109	425
662.135	441
662.161	449
662.187	427
662.213	422
662.24	424
662.266	421
662.292	445
662.318	437
662.344	445
662.371	449
662.397	429
662.423	475
662.449	475
662.475	437
662.501	440
662.528	454
662.554	423
662.58	459
662.606	464
662.632	466
662.658	442
662.685	449
662.711	460
662.737	439
662.763	431
662.789	439
662.815	449
662.842	436
662.868	434
662.894	418
662.92	431
662.946	430
662.972	438
662.998	451
663.025	438
663.051	423
663.077	452
663.103	430
663.129	440
663.155	439
663.182	427
663.208	427
663.234	446
663.26	432
663.286	464
663.312	446
663.338	440
663.365	451
663.391	417
663.417	417
663.443	437
663.469	447
663.495	435
663.521	452
663.547	447
663.574	427
663.6	429
663.626	429
663.652	447
663.678	413
663.704	425
663.73	438
663.757	471
663.783	422
663.809	430
663.835	438
663.861	442
663.887	413
663.913	422
663.939	452
663.966	444
663.992	450
664.018	443
664.044	456
664.07	439
664.096	441
664.122	427
664.148	425
664.175	440
664.201	454
664.227	425
664.253	427
664.279	432
664.305	429
664.331	448
664.357	449
664.383	436
664.41	435
664.436	441
664.462	437
664.488	435
664.514	427
664.54	430
664.566	429
664.592	443
664.618	444
664.645	432
664.671	437
664.697	424
664.723	437
664.749	434
664.775	445
664.801	433
664.827	423
664.853	443
664.879	449
664.906	443
664.932	459
664.958	440
664.984	438
665.01	434
665.036	430
665.062	449
665.088	430
665.114	434
665.14	437
665.166	430
665.192	436
665.219	425
665.245	433
665.271	446
665.297	436
665.323	424
665.349	433
665.375	438
665.401	428
665.427	449
665.453	433
665.479	444
665.505	439
665.532	453
665.558	439
665.584	419
665.61	419
665.636	429
665.662	425
665.688	429
665.714	451
665.74	423
665.766	455
665.792	441
665.818	469
665.844	416
665.87	454
665.897	433
665.923	450
665.949	458
665.975	429
666.001	431
666.027	439
666.053	446
666.079	437
666.105	423
666.131	419
666.157	445
666.183	438
666.209	447
666.235	434
666.261	437
666.287	456
666.313	445
666.339	439
666.366	453
666.392	453
666.418	431
666.444	429
666.47	431
666.496	447
666.522	429
666.548	437
666.574	432
666.6	437
666.626	414
666.652	412
666.678	453
666.704	449
666.73	444
666.756	421
666.782	417
666.808	425
666.834	430
666.86	444
666.886	429
666.912	441
666.938	421
666.964	439
666.991	430
667.017	437
667.043	445
667.069	430
667.095	419
667.121	452
667.147	435
667.173	446
667.199	446
667.225	449
667.251	422
667.277	442
667.303	457
667.329	445
667.355	444
667.381	443
667.407	431
667.433	433
667.459	423
667.485	431
667.511	436
667.537	433
667.563	433
667.589	445
667.615	452
667.641	449
667.667	415
667.693	441
667.719	432
667.745	427
667.771	417
667.797	442
667.823	425
667.849	425
667.875	419
667.901	441
667.927	433
667.953	446
667.979	425
668.005	449
668.031	459
668.057	443
668.083	434
668.109	432
668.135	437
668.161	434
668.187	459
668.213	449
668.239	426
668.265	426
668.291	429
668.317	470
668.343	438
668.369	430
668.395	418
668.421	450
668.447	405
668.473	430
668.499	429
668.525	435
668.551	445
668.577	445
668.603	431
668.629	433
668.655	436
668.681	452
668.707	467
668.733	447
668.759	429
668.785	452
668.811	455
668.837	429
668.863	430
668.889	465
668.915	451
668.941	453
668.966	415
668.992	424
669.018	433
669.044	419
669.07	401
669.096	428
669.122	449
669.148	433
669.174	445
669.2	454
669.226	437
669.252	442
669.278	430
669.304	437
669.33	446
669.356	445
669.382	428
669.408	433
669.434	429
669.46	417
669.486	423
669.512	449
669.538	441
669.564	430
669.59	442
669.615	438
669.641	433
669.667	451
669.693	426
669.719	436
669.745	429
669.771	471
669.797	439
669.823	439
669.849	455
669.875	446
669.901	426
669.927	443
669.953	433
669.979	423
670.005	427
670.031	432
670.056	425
670.082	446
670.108	423
670.134	423
670.16	425
670.186	447
670.212	426
670.238	433
670.264	442
670.29	440
670.316	430
670.342	430
670.368	451
670.394	448
670.419	425
670.445	411
670.471	448
670.497	441
670.523	455
670.549	432
670.575	429
670.601	427
670.627	442
670.653	436
670.679	442
670.705	421
670.731	458
670.756	443
670.782	429
670.808	429
670.834	426
670.86	447
670.886	452
670.912	436
670.938	438
670.964	416
670.99	442
671.016	433
671.041	428
671.067	443
671.093	427
671.119	433
671.145	431
671.171	436
671.197	447
671.223	455
671.249	431
671.275	429
671.3	442
671.326	434
671.352	456
671.378	438
671.404	483
671.43	443
671.456	415
671.482	411
671.508	438
671.533	431
671.559	433
671.585	431
671.611	428
671.637	443
671.663	433
671.689	420
671.715	437
671.741	419
671.766	443
671.792	417
671.818	417
671.844	432
671.87	461
671.896	443
671.922	433
671.948	437
671.973	437
671.999	419
672.025	441
672.051	433
672.077	414
672.103	438
672.129	441
672.155	402
672.18	423
672.206	439
672.232	447
672.258	450
672.284	435
672.31	444
672.336	435
672.362	430
672.387	444
672.413	431
672.439	433
672.465	437
672.491	426
672.517	433
672.543	437
672.568	418
672.594	446
672.62	431
672.646	429
672.672	432
672.698	452
672.724	443
672.749	435
672.775	420
672.801	430
672.827	439
672.853	444
672.879	455
672.904	430
672.93	431
672.956	440
672.982	420
673.008	412
673.034	447
673.06	429
673.085	437
673.111	424
673.137	429
673.163	446
673.189	423
673.215	435
673.24	428
673.266	413
673.292	449
673.318	422
673.344	437
673.37	417
673.395	429
673.421	436
673.447	429
673.473	425
673.499	445
673.525	430
673.55	423
673.576	447
673.602	435
673.628	433
673.654	433
673.68	428
673.705	426
673.731	433
673.757	432
673.783	432
673.809	459
673.834	439
673.86	416
673.886	427
673.912	446
673.938	441
673.964	441
673.989	450
674.015	425
674.041	450
674.067	430
674.093	434
674.118	413
674.144	413
674.17	438
674.196	430
674.222	431
674.247	432
674.273	452
674.299	430
674.325	436
674.351	423
674.376	433
674.402	435
674.428	425
674.454	439
674.48	410
674.505	419
674.531	448
674.557	446
674.583	444
674.609	421
674.634	438
674.66	427
674.686	431
674.712	434
674.738	427
674.763	434
674.789	445
674.815	436
674.841	419
674.867	459
674.892	462
674.918	428
674.944	424
674.97	427
674.995	451
675.021	447
675.047	499
675.073	503
675.099	465
675.124	451
675.15	443
675.176	449
675.202	440
675.227	507
675.253	506
675.279	433
675.305	427
675.331	435
675.356	437
675.382	442
675.408	439
675.434	435
675.459	439
675.485	433
675.511	455
675.537	428
675.562	416
675.588	421
675.614	450
675.64	447
675.665	452
675.691	422
675.717	451
675.743	425
675.769	425
675.794	417
675.82	435
675.846	438
675.872	427
675.897	437
675.923	441
675.949	447
675.975	462
676	439
676.026	430
676.052	411
676.078	433
676.103	431
676.129	435
676.155	428
676.181	440
676.206	440
676.232	470
676.258	422
676.283	457
676.309	437
676.335	443
676.361	433
676.386	415
676.412	436
676.438	430
676.464	430
676.489	425
676.515	435
676.541	425
676.567	450
676.592	428
676.618	433
676.644	426
676.67	450
676.695	463
676.721	440
676.747	421
676.772	402
676.798	445
676.824	417
676.85	432
676.875	422
676.901	444
676.927	443
676.952	432
676.978	428
677.004	438
677.03	429
677.055	431
677.081	441
677.107	450
677.133	458
677.158	421
677.184	436
677.21	449
677.235	409
677.261	454
677.287	424
677.312	434
677.338	436
677.364	420
677.39	428
677.415	438
677.441	431
677.467	445
677.492	437
677.518	434
677.544	427
677.57	451
677.595	440
677.621	435
677.647	437
677.672	435
677.698	449
677.724	428
677.749	439
677.775	430
677.801	448
677.827	440
677.852	440
677.878	441
677.904	431
677.929	433
677.955	425
677.981	435
678.006	439
678.032	449
678.058	436
678.083	441
678.109	421
678.135	450
678.16	438
678.186	437
678.212	436
678.238	425
678.263	417
678.289	449
678.315	411
678.34	423
678.366	403
678.392	437
678.417	441
678.443	431
678.469	424
678.494	434
678.52	445
678.546	430
678.571	447
678.597	433
678.623	418
678.648	426
678.674	417
678.7	445
678.725	434
678.751	422
678.777	448
678.802	440
678.828	426
678.854	451
678.879	436
678.905	436
678.931	438
678.956	429
678.982	437
679.008	453
679.033	439
679.059	426
679.085	443
679.11	429
679.136	435
679.161	421
679.187	428
679.213	425
679.238	445
679.264	446
679.29	445
679.315	453
679.341	418
679.367	433
679.392	437
679.418	435
679.444	440
679.469	439
679.495	444
679.52	399
679.546	427
679.572	466
679.597	441
679.623	417
679.649	423
679.674	435
679.7	435
679.726	440
679.751	449
679.777	441
679.802	465
679.828	437
679.854	427
679.879	435
679.905	443
679.931	437
679.956	427
679.982	453
680.008	426
680.033	449
680.059	438
680.084	411
680.11	432
680.136	449
680.161	429
680.187	445
680.212	438
680.238	457
680.264	437
680.289	414
680.315	424
680.341	445
680.366	433
680.392	435
680.417	425
680.443	439
680.469	436
680.494	438
680.52	429
680.545	432
680.571	455
680.597	430
680.622	433
680.648	437
680.673	437
680.699	451
680.725	438
680.75	425
680.776	420
680.801	439
680.827	429
680.853	421
680.878	447
680.904	441
680.929	426
680.955	443
680.981	427
681.006	440
681.032	447
681.057	434
681.083	413
681.109	457
681.134	436
681.16	435
681.185	417
681.211	437
681.237	435
681.262	427
681.288	416
681.313	443
681.339	462
681.364	416
681.39	447
681.416	437
681.441	440
681.467	423
681.492	439
681.518	465
681.544	451
681.569	433
681.595	429
681.62	446
681.646	443
681.671	441
681.697	448
681.723	441
681.748	443
681.774	445
681.799	414
681.825	441
681.85	422
681.876	453
681.902	425
681.927	457
681.953	445
681.978	447
682.004	406
682.029	439
682.055	421
682.08	439
682.106	439
682.132	434
682.157	447
682.183	435
682.208	435
682.234	439
682.259	451
682.285	453
682.31	456
682.336	446
682.362	419
682.387	427
682.413	427
682.438	432
682.464	433
682.489	447
682.515	430
682.54	438
682.566	425
682.591	449
682.617	450
682.643	433
682.668	445
682.694	443
682.719	412
682.745	461
682.77	421
682.796	435
682.821	421
682.847	423
682.872	425
682.898	419
682.923	415
682.949	435
682.975	423
683	433
683.026	420
683.051	427
683.077	439
683.102	436
683.128	439
683.153	445
683.179	442
683.204	446
683.23	414
683.255	423
683.281	438
683.306	427
683.332	427
683.357	423
683.383	447
683.408	431
683.434	448
683.459	445
683.485	419
683.511	427
683.536	424
683.562	468
683.587	437
683.613	440
683.638	423
683.664	437
683.689	419
683.715	439
683.74	451
683.766	423
683.791	424
683.817	452
683.842	440
683.868	425
683.893	430
683.919	451
683.944	432
683.97	435
683.995	420
684.021	458
684.046	433
684.072	427
684.097	433
684.123	444
684.148	433
684.174	455
684.199	441
684.225	438
684.25	444
684.276	430
684.301	460
684.327	443
684.352	422
684.378	437
684.403	433
684.429	422
684.454	438
684.479	453
684.505	424
684.53	446
684.556	413
684.581	410
684.607	407
684.632	433
684.658	457
684.683	443
684.709	441
684.734	463
684.76	442
684.785	421
684.811	437
684.836	456
684.862	425
684.887	436
684.913	426
684.938	427
684.964	426
684.989	420
685.014	443
685.04	445
685.065	427
685.091	426
685.116	414
685.142	430
685.167	446
685.193	429
685.218	438
685.244	423
685.269	429
685.295	432
685.32	419
685.345	438
685.371	442
685.396	428
685.422	443
685.447	441
685.473	441
685.498	453
685.524	438
685.549	426
685.575	451
685.6	452
685.625	443
685.651	450
685.676	440
685.702	426
685.727	442
685.753	457
685.778	428
685.804	430
685.829	434
685.854	437
685.88	419
685.905	453
685.931	454
685.956	471
685.982	423
686.007	443
686.032	431
686.058	444
686.083	416
686.109	454
686.134	457
686.16	419
686.185	423
686.211	434
686.236	428
686.261	452
686.287	438
686.312	416
686.338	445
686.363	444
686.388	434
686.414	438
686.439	430
686.465	437
686.49	463
686.516	443
686.541	445
686.566	449
686.592	469
686.617	443
686.643	445
686.668	446
686.694	426
686.719	466
686.744	425
686.77	436
686.795	443
686.821	456
686.846	421
686.871	424
686.897	436
686.922	437
686.948	432
686.973	438
686.998	433
687.024	430
687.049	424
687.075	447
687.1	428
687.125	439
687.151	417
687.176	459
687.202	435
687.227	449
687.252	431
687.278	438
687.303	431
687.329	461
687.354	438
687.379	437
687.405	453
687.43	429
687.456	442
687.481	425
687.506	439
687.532	420
687.557	431
687.582	425
687.608	427
687.633	436
687.659	410
687.684	435
687.709	412
687.735	429
687.76	441
687.786	451
687.811	442
687.836	441
687.862	451
687.887	427
687.912	430
687.938	437
687.963	438
687.989	439
688.014	449
688.039	461
688.065	473
688.09	449
688.115	443
688.141	445
688.166	436
688.192	448
688.217	457
688.242	474
688.268	496
688.293	453
688.318	437
688.344	434
688.369	428
688.394	413
688.42	435
688.445	453
688.47	442
688.496	461
688.521	444
688.547	418
688.572	440
688.597	428
688.623	439
688.648	412
688.673	446
688.699	454
688.724	450
688.749	437
688.775	444
688.8	443
688.825	433
688.851	441
688.876	432
688.901	448
688.927	431
688.952	433
688.977	428
689.003	434
689.028	457
689.053	450
689.079	437
689.104	461
689.13	415
689.155	439
689.18	427
689.206	425
689.231	428
689.256	432
689.282	437
689.307	433
689.332	443
689.358	421
689.383	449
689.408	428
689.433	446
689.459	423
689.484	425
689.509	461
689.535	427
689.56	446
689.585	444
689.611	448
689.636	449
689.661	454
689.687	436
689.712	427
689.737	422
689.763	440
689.788	431
689.813	446
689.839	423
689.864	445
689.889	445
689.915	435
689.94	471
689.965	418
689.99	432
690.016	434
690.041	428
690.066	452
690.092	439
690.117	457
690.142	413
690.168	434
690.193	438
690.218	439
690.244	420
690.269	453
690.294	430
690.319	447
690.345	435
690.37	448
690.395	432
690.421	440
690.446	449
690.471	438
690.496	448
690.522	420
690.547	433
690.572	445
690.598	447
690.623	437
690.648	423
690.674	446
690.699	420
690.724	433
690.749	422
690.775	446
690.8	439
690.825	443
690.851	423
690.876	457
690.901	457
690.926	429
690.952	449
690.977	433
691.002	446
691.027	433
691.053	431
691.078	434
691.103	435
691.129	448
691.154	435
691.179	417
691.204	429
691.23	438
691.255	433
691.28	442
691.305	429
691.331	431
691.356	445
691.381	425
691.407	423
691.432	430
691.457	453
691.482	432
691.508	433
691.533	436
691.558	431
691.583	433
691.609	428
691.634	432
691.659	420
691.684	429
691.71	433
691.735	433
691.76	435
691.785	461
691.811	436
691.836	431
691.861	448
691.886	443
691.912	445
691.937	459
691.962	443
691.987	428
692.013	455
692.038	427
692.063	438
692.088	445
692.114	434
692.139	442
692.164	441
692.189	451
692.215	434
692.24	451
692.265	435
692.29	449
692.315	441
692.341	437
692.366	437
692.391	449
692.416	447
692.442	453
692.467	439
692.492	441
692.517	430
692.543	419
692.568	427
692.593	457
692.618	435
692.643	432
692.669	438
692.694	437
692.719	435
692.744	440
692.77	462
692.795	423
692.82	421
692.845	445
692.87	451
692.896	453
692.921	455
692.946	446
692.971	453
692.997	438
693.022	445
693.047	435
693.072	425
693.097	437
693.123	438
693.148	444
693.173	427
693.198	446
693.223	453
693.249	447
693.274	429
693.299	454
693.324	442
693.349	449
693.375	446
693.4	443
693.425	441
693.45	449
693.475	470
693.501	452
693.526	455
693.551	435
693.576	441
693.601	456
693.627	439
693.652	428
693.677	449
693.702	463
693.727	462
693.753	450
693.778	455
693.803	476
693.828	439
693.853	448
693.879	446
693.904	449
693.929	441
693.954	442
693.979	429
694.004	441
694.03	456
694.055	432
694.08	430
694.105	439
694.13	427
694.156	467
694.181	439
694.206	437
694.231	434
694.256	457
694.281	422
694.307	463
694.332	443
694.357	461
694.382	468
694.407	449
694.432	434
694.458	449
694.483	433
694.508	459
694.533	473
694.558	445
694.583	454
694.609	443
694.634	439
694.659	479
694.684	441
694.709	454
694.734	454
694.759	452
694.785	432
694.81	451
694.835	479
694.86	466
694.885	465
694.91	434
694.936	440
694.961	436
694.986	455
695.011	453
695.036	478
695.061	459
695.086	446
695.112	437
695.137	446
695.162	455
695.187	445
695.212	454
695.237	460
695.262	455
695.288	452
695.313	481
695.338	466
695.363	453
695.388	447
695.413	456
695.438	454
695.464	446
695.489	462
695.514	462
695.539	439
695.564	443
695.589	437
695.614	475
695.639	461
695.665	472
695.69	457
695.715	457
695.74	461
695.765	452
695.79	442
695.815	467
695.84	465
695.866	461
695.891	449
695.916	457
695.941	451
695.966	480
695.991	467
696.016	445
696.041	450
696.067	478
696.092	463
696.117	459
696.142	478
696.167	443
696.192	447
696.217	461
696.242	437
696.267	453
696.293	470
696.318	461
696.343	462
696.368	469
696.393	470
696.418	443
696.443	466
696.468	454
696.493	455
696.519	465
696.544	471
696.569	479
696.594	492
696.619	453
696.644	463
696.669	463
696.694	441
696.719	488
696.744	457
696.769	471
696.795	445
696.82	491
696.845	463
696.87	486
696.895	469
696.92	449
696.945	470
696.97	465
696.995	441
697.02	457
697.045	455
697.071	461
697.096	481
697.121	463
697.146	456
697.171	467
697.196	467
697.221	464
697.246	484
697.271	447
697.296	470
697.321	486

